    1    2        33.7393      0.000e+00      1.512e+02 
    1    3        33.7396      2.770e-01      8.116e+11 
    1    4        33.7342      5.539e-01      8.116e+11 
    3    5       182.1320      2.706e-02      2.721e+09 
    4    5       182.2900      5.456e-02      5.476e+09 
    1    6        28.4663      5.249e-02      2.160e+11 
    2    6       182.1440      2.895e-01      2.910e+10 
    1    7        28.4652      1.051e-01      2.164e+11 
    2    7       182.0970      5.781e-01      2.907e+10 
    1    8        28.4652      0.000e+00      2.779e+07 
    2    8       182.0970      0.000e+00      2.385e+06 
    3    8       182.0880      1.390e+00      6.990e+10 
    4    8       182.2460      2.782e-01      1.397e+10 
    1    9        28.4648      0.000e+00      2.778e+07 
    2    9       182.0810      0.000e+00      2.386e+06 
    4    9       182.2300      2.504e+00      8.381e+10 
    3   10       134.9180      6.004e-03      1.100e+09 
    4   10       135.0040      1.217e-02      2.227e+09 
    6   10       520.4290      6.427e-02      7.914e+08 
    7   10       520.8100      1.294e-01      1.591e+09 
    1   11        26.9901      1.916e-02      8.770e+10 
    2   11       134.9230      6.822e-02      1.250e+10 
    5   11       520.4590      3.227e-01      3.972e+09 
    8   11       520.8190      3.678e-02      4.522e+08 
    1   12        26.9896      3.842e-02      8.794e+10 
    2   12       134.9120      1.365e-01      1.250e+10 
    5   12       520.2980      6.439e-01      3.966e+09 
    8   12       520.6580      7.314e-03      4.499e+07 
    9   12       520.7850      6.602e-02      4.059e+08 
    1   13        26.9896      0.000e+00      1.551e+07 
    3   13       134.9070      2.432e-01      2.229e+10 
    4   13       134.9940      4.865e-02      4.452e+09 
    6   13       520.2770      1.234e+00      7.600e+09 
    7   13       520.6580      2.472e-01      1.521e+09 
    1   14        26.9895      0.000e+00      1.551e+07 
    4   14       134.9900      4.381e-01      2.673e+10 
    7   14       520.6050      2.224e+00      9.122e+09 
    3   15       134.9040      0.000e+00      2.244e+06 
    4   15       134.9900      0.000e+00      6.407e+05 
    6   15       520.2240      0.000e+00      2.106e+05 
    8   15       520.6040      4.068e+00      1.669e+10 
    9   15       520.7310      2.907e-01      1.192e+09 
    4   16       134.9890      0.000e+00      2.883e+06 
    7   16       520.5780      0.000e+00      2.702e+05 
    9   16       520.7050      5.813e+00      1.788e+10 
    3   17       120.4650      2.328e-03      5.351e+08 
    4   17       120.5340      4.801e-03      1.102e+09 
    6   17       355.7760      1.462e-02      3.853e+08 
    7   17       355.9550      2.961e-02      7.795e+08 
   11   17      1124.4850      1.052e-01      2.776e+08 
   12   17      1125.2370      2.120e-01      5.583e+08 
    1   18        26.3574      9.122e-03      4.379e+10 
    2   18       120.4690      2.765e-02      6.353e+09 
    5   18       355.7880      8.019e-02      2.113e+09 
    8   18       355.9560      7.318e-03      1.926e+08 
   10   18      1124.5480      3.618e-01      9.540e+08 
   13   18      1125.2570      9.288e-02      2.446e+08 
    1   19        26.3572      1.832e-02      4.397e+10 
    2   19       120.4640      5.538e-02      6.364e+09 
    5   19       355.7500      1.604e-01      2.113e+09 
    8   19       355.9180      1.458e-03      1.919e+07 
    9   19       355.9770      1.321e-02      1.739e+08 
   10   19      1124.1640      7.220e-01      9.527e+08 
   13   19      1124.8720      1.849e-02      2.436e+07 
   14   19      1125.1220      1.669e-01      2.199e+08 
    1   20        26.3572      0.000e+00      9.647e+06 
    3   20       120.4600      8.834e-02      1.015e+10 
    4   20       120.5290      1.769e-02      2.031e+09 
    6   20       355.7400      2.775e-01      3.657e+09 
    7   20       355.9180      5.559e-02      7.318e+08 
   11   20      1124.1230      1.214e+00      1.603e+09 
   12   20      1124.8740      2.435e-01      3.209e+08 
   15   20      1125.1230      4.965e-02      6.540e+07 
    1   21        26.3572      0.000e+00      9.653e+06 
    4   21       120.5280      1.594e-01      1.220e+10 
    7   21       355.9050      5.005e-01      4.393e+09 
   12   21      1124.7460      2.191e+00      1.925e+09 
   15   21      1124.9940      3.539e-03      3.109e+06 
   16   21      1125.1190      7.094e-02      6.230e+07 
    3   22       120.4590      0.000e+00      1.511e+06 
    4   22       120.5280      0.000e+00      4.291e+05 
    8   22       355.9050      6.261e-01      5.495e+09 
    9   22       355.9640      4.471e-02      3.923e+08 
   13   22      1124.7450      3.558e+00      3.127e+09 
   14   22      1124.9950      2.543e-01      2.233e+08 
    4   23       120.5270      0.000e+00      1.931e+06 
    9   23       355.9580      8.946e-01      5.887e+09 
   14   23      1124.9310      5.085e+00      3.350e+09 
    8   24       355.8990      0.000e+00      4.877e+05 
   15   24      1124.9310      8.073e+00      5.319e+09 
   16   24      1125.0560      2.990e-01      1.970e+08 
    9   25       355.9540      0.000e+00      5.418e+05 
   16   25      1125.0170      1.047e+01      5.515e+09 
 -1
%filename:  /data2/svn/chianti/dbase/trunk/c/c_6/c_6.wgfa
%filename: c_6.wgfa
%observed energy levels: Martin, W.C., Sugar, J., Musgrove, A., Dalton, G.R., 1995,
NIST Database for Atomic Spectroscopy, Version 1.0, NIST Standard Reference Database 61.
%A values (transition 1-2): Parpia, F.A., Johnson, W.R., 1982, Phys.Rev.A, 26, 1142.
%Radiative data: SUPERSTRUCTURE calculation including all levels up to n=5.
%produced as part of the Arcetri/Cambridge/NRL 'CHIANTI' atomic data base collaboration
%
%  Giulio Del Zanna  -  May 2006
% edited wavelengths at line 68 to provide a space between the wavelength and the level2 numbers
% K Dere 7 oct 2015

 minimum branching ratio =   1.00e-05
K. Dere  2017 December 06
%File processed with wgfa_tidy by pryoung on  6-Mar-2019

Reference:
Chianti  2025-06-03
 -1
